#RES  Dist(A) lDDT_CA(%)
1       7.450    0.639
2       6.742    1.000
3       6.005    0.977
4       4.880    0.938
5       6.298    0.942
6       7.071    0.964
7       5.527    0.983
8       4.958    0.933
9       5.837    0.938
10      5.740    0.912
11      4.464    0.956
12      4.451    0.819
13      5.240    0.837
14      4.838    0.869
15      3.702    0.931
16      2.976    0.850
17      2.071    0.808
18      1.603    0.707
19      0.743    0.863
20      1.416    0.802
21      0.897    0.875
22      0.245    0.918
23      0.223    0.941
24      0.285    0.952
25      0.246    0.979
26      0.356    0.962
27      0.167    0.968
28      0.168    0.956
29      0.330    0.963
30      0.358    0.958
31      0.267    0.932
32      0.062    0.952
33      0.195    0.929
34      0.340    0.931
35      0.364    0.928
36      0.214    0.957
37      0.410    0.922
38      0.455    0.877
39      0.197    0.905
40      0.460    0.929
41      0.457    0.904
42      0.366    0.908
43      0.363    0.946
44      0.330    0.944
45      0.451    0.948
46      0.639    0.948
47      0.818    0.930
48      0.832    0.901
49      1.117    0.853
50      1.081    0.900
51      1.079    0.869
52      0.889    0.938
53      1.042    0.898
54      1.422    0.854
55      1.172    0.850
56      0.932    0.839
57      0.737    0.940
58      0.379    0.950
59      0.582    0.901
60      0.555    0.913
61      0.477    0.930
62      0.536    0.921
63      0.833    0.860
64      0.618    0.918
65      0.669    0.945
66      0.844    0.910
67      2.573    0.784
68      1.238    0.898
69      0.613    0.895
70      1.283    0.842
71      2.504    0.759
72      2.786    0.831
73      1.977    0.787
74      1.467    0.854
75      1.349    0.891
76      1.407    0.835
77      0.819    0.932
78      0.896    0.890
79      0.932    0.904
80      0.933    0.886
81      0.920    0.904
82      0.832    0.902
83      0.965    0.921
84      0.757    0.885
85      0.615    0.804
86      0.878    0.933
87      0.858    0.811
88      1.527    0.673
89      1.600    0.744
90      1.730    0.802
91      1.348    0.827
92      0.395    0.952
93      0.984    0.935
94      0.616    0.931
95      0.941    0.870
96      0.569    0.911
97      0.700    0.931
98      0.410    0.941
99      0.423    0.891
100     0.726    0.868
101     0.170    0.946
102     0.618    0.935
103     0.861    0.911
104     1.256    0.849
105     1.320    0.825
106     0.907    0.897
107     0.547    0.960
108     0.449    0.952
109     0.393    0.963
110     0.273    0.953
111     0.431    0.935
112     0.734    0.932
113     1.332    0.847
114     2.856    0.684
115     2.523    0.772
116     2.000    0.726
117     4.845    0.750
118     1.521    0.692
119     1.712    0.905
120     2.223    0.750
121     0.893    0.913
122     0.482    0.938
123     0.558    0.938
124     0.531    0.949
125     0.246    0.963
126     0.385    0.955
127     0.496    0.932
128     1.375    0.780
129     1.194    0.774
130     2.637    0.630
