#RES  Dist(A) lDDT_CA(%)
1      13.063    0.500
2       9.758    0.375
3       5.444    0.750
4       2.225    0.750
5       0.881    0.825
6       0.252    0.826
7       1.123    0.913
8       0.881    0.829
9       0.735    0.853
10      1.470    0.892
11      1.469    0.858
12      1.070    0.880
13      1.310    0.897
14      1.323    0.917
15      1.064    0.920
16      1.063    0.917
17      1.297    0.946
18      1.108    0.948
19      0.943    0.942
20      0.971    0.956
21      0.923    0.994
22      0.729    0.962
23      0.750    0.980
24      0.588    0.971
25      0.522    0.960
26      0.683    0.893
27      0.706    0.938
28      0.470    0.953
29      0.303    0.837
30      0.709    0.897
31      1.317    0.925
32      1.500    0.878
33      0.900    0.799
34      1.334    0.878
35      1.914    0.868
36      1.766    0.788
37      1.599    0.850
38      2.401    0.893
39      3.450    0.891
40      4.073    0.908
41      4.332    0.842
42      2.994    0.790
43      2.430    0.943
44      2.636    0.852
45      1.726    0.950
46      1.366    0.900
47      1.857    0.787
48      1.838    0.907
49      1.199    0.950
50      1.175    0.756
51      1.158    0.791
52      0.859    0.941
53      0.098    0.911
54      0.487    0.781
55      0.640    0.936
56      0.794    0.955
57      0.677    0.954
58      0.645    0.953
59      0.815    0.986
60      0.881    0.990
61      1.000    0.973
62      0.915    0.962
63      0.774    0.981
64      0.667    0.951
65      0.442    0.978
66      0.360    0.912
67      0.437    0.832
68      0.826    0.810
69      1.028    0.833
70      0.858    0.797
71      1.416    0.712
72      2.052    0.750
73      2.132    0.782
74      2.038    0.579
75      3.456    0.641
76      3.977    0.733
77      3.440    0.641
78      4.567    0.589
79      7.643    0.490
80     13.251    0.486
81     12.672    0.529
82     13.632    0.344
83      9.005    0.458
84      8.629    0.600
85      6.907    0.565
86      5.819    0.710
87      4.249    0.736
88      4.749    0.696
89      4.813    0.750
90      3.335    0.858
91      2.294    0.889
92      2.827    0.808
93      2.503    0.885
94      0.981    0.935
95      1.056    0.900
96      1.320    0.936
97      1.100    0.949
98      0.711    0.932
99      0.573    0.952
100     0.538    0.958
101     0.549    0.926
102     0.454    0.961
103     0.455    0.994
104     0.516    0.954
105     0.418    0.979
106     0.425    0.985
107     0.610    0.980
108     1.188    0.905
109     1.329    0.883
110     1.316    0.912
111     1.838    0.883
112     1.863    0.825
113     2.499    0.750
114     3.204    0.893
115     3.216    0.823
116     2.920    0.724
117     4.095    0.758
118     4.515    0.825
119     2.979    0.778
120     4.253    0.560
121     6.306    0.735
122     6.983    0.594
123     7.372    0.512
124     9.576    0.433
